#\Rows = 210
#\Cols = 17
#\Coordinate system = equ
#\Equinox = J2000
#\Coordinate format = degree
#\Cutout size unit = degree
#\E_B_V is E(B-V), unit = mag
#\AV is A(V), unit = mag
#\Statistics radius = 5.0 arcmin
#\stdev is the standard deviation of the quantity
#\A(V)/E(B-V) = 3.1 is assumed
#\SandF: Schlafly and Finkbeiner 2011 (ApJ 737, 103)
#\SFD: Schlegel et al. 1998 (ApJ 500, 525)
#|ra             |dec            |cutout_size     |E_B_V_SandF       |mean_E_B_V_SandF  |stdev_E_B_V_SandF |max_E_B_V_SandF   |min_E_B_V_SandF   |AV_SandF          |E_B_V_SFD         |mean_E_B_V_SFD    |stdev_E_B_V_SFD   |max_E_B_V_SFD     |min_E_B_V_SFD     |AV_SFD
#|double         |double         |float           |float             |float             |float             |float             |float             |float             |float             |float             |float             |float             |float             |float
#|deg            |deg            |deg             |mags              |mags              |mags              |mags              |mags              |mags              |mags              |mags              |mags              |mags              |mags              |mags
77.666670       -68.753610      2                0.8934             1.0046             0.3526             1.9484             0.5822             2.7696             1.0389             1.1681             0.4100             2.2656             0.6769             3.2204         
78.104170       -68.771940      2                0.4032             0.4429             0.0606             0.6141             0.3686             1.2499             0.4688             0.5150             0.0705             0.7140             0.4286             1.4534         
81.125000       -67.678060      2                0.2938             0.3257             0.0554             0.4330             0.2608             0.9108             0.3417             0.3787             0.0645             0.5035             0.3033             1.0591         
82.483330       -72.054720      2                0.0851             0.0895             0.0102             0.1131             0.0760             0.2638             0.0989             0.1041             0.0118             0.1316             0.0884             0.3067         
82.850000       -72.042500      2                0.0868             0.0888             0.0049             0.0963             0.0785             0.2692             0.1010             0.1032             0.0057             0.1120             0.0913             0.3130         
76.904170       -68.541940      2                0.7155             0.6655             0.0821             0.7562             0.4772             2.2181             0.8320             0.7739             0.0954             0.8793             0.5548             2.5792         
79.454170       -68.472780      2                0.2762             0.3004             0.0318             0.3822             0.2605             0.8564             0.3212             0.3493             0.0370             0.4445             0.3030             0.9958         
81.116670       -67.728610      2                0.3156             0.3455             0.0619             0.4693             0.2608             0.9785             0.3670             0.4017             0.0720             0.5457             0.3033             1.1378         
82.208330       -71.632780      2                0.2329             0.2486             0.0236             0.2788             0.1969             0.7221             0.2709             0.2891             0.0275             0.3241             0.2290             0.8397         
82.925000       -72.146110      2                0.0809             0.0831             0.0059             0.0947             0.0741             0.2507             0.0940             0.0966             0.0069             0.1102             0.0862             0.2915         
83.012500       -64.242220      2                0.0486             0.0495             0.0016             0.0525             0.0467             0.1505             0.0565             0.0576             0.0019             0.0611             0.0543             0.1750         
85.833330       -66.262220      2                0.3360             0.2894             0.0974             0.4437             0.1391             1.0415             0.3907             0.3365             0.1132             0.5159             0.1617             1.2111         
85.895830       -66.208610      2                0.2446             0.2289             0.0856             0.4437             0.1153             0.7582             0.2844             0.2662             0.0995             0.5159             0.1340             0.8816         
76.354170       -68.500560      2                0.5645             0.5353             0.0559             0.6129             0.3902             1.7499             0.6564             0.6225             0.0650             0.7127             0.4537             2.0348         
76.416670       -68.639440      2                0.2659             0.2827             0.0675             0.4357             0.2001             0.8242             0.3092             0.3287             0.0785             0.5066             0.2327             0.9584         
76.512500       -68.628330      2                0.2979             0.3348             0.0954             0.5673             0.2122             0.9234             0.3464             0.3893             0.1110             0.6597             0.2468             1.0737         
76.537500       -68.445830      2                0.5631             0.5576             0.0590             0.7028             0.4502             1.7457             0.6548             0.6484             0.0686             0.8172             0.5234             2.0299         
77.916670       -68.726670      2                0.5168             0.5298             0.1189             0.8262             0.3871             1.6021             0.6009             0.6161             0.1383             0.9607             0.4502             1.8629         
72.154170       -68.559440      2                0.2631             0.2576             0.0256             0.2979             0.2073             0.8155             0.3059             0.2995             0.0298             0.3464             0.2410             0.9483         
74.391670       -65.267780      2                0.0456             0.0461             0.0016             0.0496             0.0437             0.1414             0.0530             0.0536             0.0018             0.0577             0.0508             0.1644         
82.641670       -63.203330      2                0.0509             0.0503             0.0012             0.0517             0.0478             0.1578             0.0592             0.0585             0.0013             0.0601             0.0556             0.1835         
85.620830       -65.362780      2                0.0553             0.0559             0.0010             0.0586             0.0546             0.1714             0.0643             0.0649             0.0012             0.0681             0.0635             0.1993         
88.895830       -62.345280      2                0.0414             0.0415             0.0012             0.0441             0.0396             0.1283             0.0481             0.0482             0.0013             0.0513             0.0461             0.1492         
88.925000       -74.353890      2                0.1169             0.1166             0.0046             0.1259             0.1092             0.3623             0.1359             0.1355             0.0054             0.1464             0.1270             0.4213         
93.987500       -70.073060      2                0.0810             0.0808             0.0023             0.0860             0.0763             0.2510             0.0942             0.0940             0.0027             0.1000             0.0887             0.2919         
94.329170       -70.060830      2                0.0809             0.0818             0.0014             0.0854             0.0797             0.2509             0.0941             0.0951             0.0016             0.0993             0.0927             0.2917         
5.362500        -73.748610      2                0.0318             0.0313             0.0010             0.0328             0.0297             0.0987             0.0370             0.0364             0.0012             0.0382             0.0345             0.1147         
5.666670        -75.074720      2                0.0337             0.0345             0.0023             0.0392             0.0308             0.1045             0.0392             0.0401             0.0027             0.0455             0.0358             0.1215         
5.766670        -73.669720      2                0.0312             0.0313             0.0011             0.0332             0.0290             0.0966             0.0362             0.0363             0.0012             0.0386             0.0337             0.1124         
6.179170        -73.755000      2                0.0347             0.0338             0.0011             0.0354             0.0312             0.1075             0.0403             0.0393             0.0013             0.0411             0.0363             0.1250         
9.425000        -73.908330      2                0.0435             0.0436             0.0016             0.0468             0.0397             0.1349             0.0506             0.0507             0.0019             0.0544             0.0461             0.1569         
10.350000       -72.890830      2                0.0913             0.0975             0.0192             0.1506             0.0732             0.2831             0.1062             0.1133             0.0223             0.1751             0.0852             0.3292         
16.016670       -74.619170      2                0.0464             0.0466             0.0008             0.0487             0.0453             0.1437             0.0539             0.0542             0.0009             0.0567             0.0527             0.1671         
16.091670       -72.847780      2                0.1196             0.1175             0.0053             0.1263             0.1085             0.3706             0.1390             0.1366             0.0062             0.1469             0.1262             0.4310         
12.004170       -73.486110      2                0.2742             0.3127             0.0727             0.4479             0.1947             0.8502             0.3189             0.3636             0.0845             0.5208             0.2264             0.9886         
13.145830       -72.193060      2                0.1926             0.1841             0.0316             0.2370             0.1294             0.5970             0.2239             0.2140             0.0367             0.2756             0.1505             0.6942         
13.354170       -72.196390      2                0.1922             0.1792             0.0288             0.2303             0.1305             0.5960             0.2235             0.2084             0.0334             0.2677             0.1517             0.6930         
13.562500       -72.241390      2                0.1760             0.1861             0.0237             0.2303             0.1380             0.5456             0.2046             0.2164             0.0276             0.2678             0.1604             0.6344         
15.004170       -72.368890      2                0.2614             0.2637             0.0474             0.3527             0.1943             0.8103             0.3040             0.3066             0.0551             0.4101             0.2260             0.9423         
15.141670       -72.365560      2                0.2234             0.2240             0.0330             0.2974             0.1821             0.6925             0.2597             0.2604             0.0384             0.3458             0.2117             0.8052         
23.608330       -72.874440      2                0.0291             0.0298             0.0008             0.0318             0.0289             0.0903             0.0339             0.0347             0.0010             0.0369             0.0336             0.1050         
27.366670       -73.728330      2                0.0406             0.0406             0.0007             0.0429             0.0391             0.1258             0.0472             0.0473             0.0008             0.0499             0.0455             0.1463         
4.604170        -74.318610      2                0.0336             0.0337             0.0008             0.0351             0.0323             0.1041             0.0390             0.0392             0.0009             0.0409             0.0376             0.1210         
10.745830       -72.588610      2                0.0728             0.0699             0.0071             0.0823             0.0574             0.2256             0.0846             0.0813             0.0082             0.0957             0.0667             0.2623         
18.016670       -75.197500      2                0.0418             0.0420             0.0013             0.0451             0.0404             0.1295             0.0486             0.0488             0.0015             0.0524             0.0470             0.1506         
19.566670       -72.001670      2                0.0386             0.0387             0.0010             0.0409             0.0368             0.1197             0.0449             0.0450             0.0012             0.0476             0.0428             0.1392         
20.700000       -75.001670      2                0.0567             0.0558             0.0011             0.0574             0.0537             0.1758             0.0659             0.0649             0.0012             0.0668             0.0624             0.2044         
21.233330       -71.183610      2                0.0369             0.0376             0.0017             0.0415             0.0353             0.1145             0.0429             0.0437             0.0020             0.0482             0.0411             0.1331         
23.308330       -74.167220      2                0.0394             0.0393             0.0011             0.0417             0.0372             0.1220             0.0458             0.0457             0.0013             0.0485             0.0432             0.1418         
25.616670       -71.279170      2                0.0281             0.0283             0.0003             0.0289             0.0278             0.0871             0.0327             0.0329             0.0003             0.0336             0.0323             0.1013         
27.579170       -74.356110      2                0.0385             0.0381             0.0006             0.0391             0.0369             0.1195             0.0448             0.0442             0.0008             0.0455             0.0429             0.1389         
29.183330       -74.219440      2                0.0407             0.0402             0.0009             0.0415             0.0383             0.1262             0.0473             0.0467             0.0011             0.0483             0.0445             0.1467         
11.475000       -73.506670      2                0.2668             0.2841             0.0765             0.4709             0.1728             0.8271             0.3102             0.3303             0.0889             0.5475             0.2009             0.9618         
11.800000       -73.477220      2                0.3582             0.3603             0.0911             0.5601             0.2365             1.1104             0.4165             0.4190             0.1059             0.6513             0.2750             1.2911         
13.275000       -73.380280      2                0.3627             0.3459             0.0452             0.4208             0.2358             1.1244             0.4217             0.4022             0.0525             0.4893             0.2741             1.3074         
15.970830       -72.826110      2                0.1133             0.1138             0.0056             0.1236             0.1052             0.3514             0.1318             0.1324             0.0065             0.1437             0.1223             0.4086         
72.795830       -67.534720      2                0.1724             0.1676             0.0180             0.1960             0.1182             0.5345             0.2005             0.1949             0.0209             0.2279             0.1374             0.6215         
73.462500       -69.571940      2                0.3556             0.3784             0.1086             0.6088             0.2413             1.1025             0.4135             0.4400             0.1262             0.7079             0.2806             1.2819         
73.762500       -67.964440      2                0.1316             0.1461             0.0195             0.2019             0.1255             0.4080             0.1531             0.1698             0.0227             0.2347             0.1459             0.4745         
74.120830       -67.622780      2                0.1699             0.1791             0.0286             0.2350             0.1276             0.5268             0.1976             0.2082             0.0332             0.2733             0.1484             0.6126         
74.558330       -67.768330      2                0.1930             0.2005             0.0152             0.2306             0.1785             0.5983             0.2244             0.2332             0.0177             0.2681             0.2075             0.6957         
74.808330       -67.908330      2                0.2220             0.2252             0.0197             0.2620             0.1890             0.6881             0.2581             0.2618             0.0229             0.3046             0.2198             0.8001         
76.125000       -68.349720      2                0.3219             0.3408             0.0796             0.4891             0.2165             0.9980             0.3743             0.3963             0.0926             0.5688             0.2518             1.1605         
76.604170       -68.375000      2                0.4990             0.4926             0.0507             0.6042             0.3977             1.5468             0.5802             0.5728             0.0589             0.7025             0.4624             1.7986         
77.220830       -68.083610      2                0.2896             0.2952             0.0327             0.3514             0.2341             0.8977             0.3367             0.3432             0.0380             0.4086             0.2722             1.0438         
77.625000       -68.400560      2                0.5532             0.5358             0.0680             0.7178             0.4348             1.7150             0.6433             0.6230             0.0791             0.8347             0.5056             1.9942         
77.720830       -67.471110      2                0.2006             0.2223             0.0430             0.3004             0.1581             0.6219             0.2333             0.2584             0.0500             0.3493             0.1839             0.7231         
77.733330       -67.626670      2                0.2488             0.2667             0.0497             0.3569             0.1787             0.7714             0.2893             0.3102             0.0577             0.4150             0.2078             0.8969         
77.787500       -67.682500      2                0.3287             0.3177             0.0427             0.3732             0.2258             1.0190             0.3822             0.3694             0.0496             0.4340             0.2625             1.1849         
77.920830       -67.565560      2                0.2977             0.3207             0.0566             0.4467             0.2098             0.9229             0.3462             0.3729             0.0659             0.5194             0.2440             1.0732         
78.812500       -68.882500      2                0.6026             0.6033             0.0366             0.6916             0.5350             1.8682             0.7007             0.7015             0.0425             0.8042             0.6221             2.1723         
78.854170       -68.681110      2                0.5398             0.5237             0.1151             0.7432             0.3352             1.6734             0.6277             0.6089             0.1338             0.8642             0.3898             1.9459         
79.112500       -69.080280      2                0.6486             0.7067             0.1082             0.9568             0.5407             2.0105             0.7541             0.8217             0.1259             1.1126             0.6287             2.3378         
79.233330       -68.682780      2                0.6331             0.5952             0.1292             0.7931             0.3689             1.9625             0.7361             0.6920             0.1502             0.9222             0.4289             2.2820         
82.333330       -70.579440      2                0.1658             0.1737             0.0301             0.2445             0.1369             0.5139             0.1927             0.2020             0.0350             0.2843             0.1592             0.5975         
83.095830       -67.996940      2                0.4046             0.4655             0.0946             0.6657             0.3166             1.2542             0.4704             0.5412             0.1100             0.7740             0.3681             1.4583         
83.254170       -67.849170      2                0.3814             0.5123             0.2206             1.1592             0.3149             1.1822             0.4434             0.5957             0.2565             1.3479             0.3661             1.3746         
83.662500       -68.305560      2                0.7075             0.6901             0.1467             1.0143             0.4288             2.1932             0.8226             0.8024             0.1706             1.1794             0.4986             2.5502         
85.454170       -68.920830      2                2.1510             2.0544             0.3154             2.4926             1.3063             6.6680             2.5011             2.3889             0.3667             2.8984             1.5190             7.7535         
86.362500       -69.345280      2                1.2877             1.3088             0.1677             1.8289             1.0373             3.9918             1.4973             1.5219             0.1950             2.1266             1.2062             4.6416         
86.712500       -69.419720      2                1.3191             1.2425             0.0624             1.3191             1.0101             4.0891             1.5338             1.4448             0.0726             1.5338             1.1745             4.7548         
95.391670       -72.790000      2                0.0675             0.0682             0.0010             0.0709             0.0669             0.2092             0.0785             0.0793             0.0011             0.0824             0.0778             0.2432         
10.933330       -72.976670      2                0.1925             0.1916             0.0371             0.2750             0.1251             0.5969             0.2239             0.2228             0.0431             0.3198             0.1455             0.6940         
11.958330       -73.478330      2                0.3376             0.3283             0.0713             0.4905             0.2125             1.0465             0.3925             0.3818             0.0829             0.5703             0.2471             1.2168         
14.341670       -71.891390      2                0.1680             0.1704             0.0263             0.2277             0.1283             0.5209             0.1954             0.1981             0.0306             0.2647             0.1492             0.6057         
18.875000       -71.178890      2                0.0407             0.0391             0.0022             0.0423             0.0342             0.1261             0.0473             0.0455             0.0025             0.0492             0.0398             0.1466         
11.216670       -73.001940      2                0.2621             0.2754             0.0953             0.5222             0.1457             0.8124             0.3047             0.3202             0.1109             0.6073             0.1694             0.9446         
11.358330       -73.481390      2                0.2844             0.2990             0.1008             0.5439             0.1670             0.8818             0.3308             0.3477             0.1172             0.6324             0.1941             1.0253         
11.683330       -72.063060      2                0.0528             0.0545             0.0050             0.0635             0.0460             0.1635             0.0613             0.0633             0.0058             0.0738             0.0535             0.1902         
12.137500       -73.306940      2                0.7658             0.7100             0.2054             1.0889             0.4222             2.3739             0.8904             0.8255             0.2388             1.2662             0.4910             2.7603         
14.445830       -74.326670      2                0.0389             0.0393             0.0010             0.0412             0.0375             0.1207             0.0453             0.0458             0.0011             0.0479             0.0436             0.1403         
14.450000       -73.421670      2                0.0958             0.0955             0.0079             0.1102             0.0812             0.2971             0.1115             0.1111             0.0092             0.1281             0.0944             0.3455         
14.458330       -72.943610      2                0.1893             0.1949             0.0267             0.2629             0.1544             0.5868             0.2201             0.2266             0.0311             0.3057             0.1796             0.6823         
15.595830       -72.003060      2                0.3940             0.4339             0.1104             0.6321             0.2497             1.2213             0.4581             0.5045             0.1283             0.7349             0.2904             1.4201         
16.833330       -73.377500      2                0.0620             0.0647             0.0050             0.0744             0.0566             0.1923             0.0721             0.0752             0.0058             0.0865             0.0658             0.2236         
17.079170       -72.884170      2                0.0850             0.0887             0.0088             0.1073             0.0745             0.2635             0.0988             0.1031             0.0102             0.1248             0.0867             0.3064         
18.258330       -70.962780      2                0.0292             0.0298             0.0008             0.0317             0.0285             0.0904             0.0339             0.0346             0.0009             0.0368             0.0331             0.1051         
13.887500       -74.063610      2                0.0461             0.0468             0.0032             0.0533             0.0408             0.1428             0.0535             0.0545             0.0037             0.0620             0.0474             0.1660         
14.425000       -74.472780      2                0.0422             0.0424             0.0007             0.0438             0.0410             0.1309             0.0491             0.0493             0.0008             0.0509             0.0477             0.1522         
15.104170       -71.294720      2                0.0614             0.0647             0.0119             0.0947             0.0476             0.1904             0.0714             0.0753             0.0139             0.1102             0.0553             0.2214         
15.145830       -71.460830      2                0.1328             0.1264             0.0211             0.1701             0.0944             0.4118             0.1545             0.1470             0.0245             0.1978             0.1098             0.4788         
15.283330       -74.073610      2                0.0375             0.0378             0.0010             0.0399             0.0362             0.1162             0.0436             0.0439             0.0011             0.0464             0.0421             0.1351         
17.225000       -73.241670      2                0.1087             0.1073             0.0263             0.1557             0.0642             0.3371             0.1264             0.1248             0.0306             0.1810             0.0746             0.3920         
17.554170       -73.209170      2                0.1075             0.1089             0.0204             0.1557             0.0774             0.3331             0.1250             0.1267             0.0237             0.1810             0.0900             0.3874         
18.212500       -73.119440      2                0.0988             0.1204             0.0420             0.2548             0.0699             0.3063             0.1149             0.1400             0.0489             0.2963             0.0812             0.3562         
357.245830      -72.945280      2                0.0296             0.0288             0.0011             0.0304             0.0265             0.0917             0.0344             0.0335             0.0013             0.0353             0.0308             0.1066         
67.666670       -66.956940      2                0.0349             0.0352             0.0008             0.0369             0.0340             0.1083             0.0406             0.0409             0.0010             0.0429             0.0396             0.1259         
68.908330       -73.731670      2                0.0940             0.0932             0.0034             0.0995             0.0871             0.2913             0.1093             0.1083             0.0039             0.1157             0.1012             0.3388         
69.412500       -66.199440      2                0.0414             0.0404             0.0012             0.0421             0.0377             0.1283             0.0481             0.0470             0.0014             0.0490             0.0438             0.1491         
69.925000       -74.017220      2                0.0770             0.0773             0.0019             0.0815             0.0745             0.2387             0.0895             0.0899             0.0022             0.0947             0.0867             0.2775         
70.808330       -73.811940      2                0.0795             0.0794             0.0017             0.0819             0.0760             0.2465             0.0925             0.0924             0.0019             0.0952             0.0883             0.2866         
72.279170       -67.341670      2                0.1405             0.1398             0.0109             0.1616             0.1234             0.4355             0.1634             0.1626             0.0127             0.1879             0.1435             0.5064         
73.550000       -69.806940      2                0.2500             0.2404             0.0229             0.2781             0.2033             0.7750             0.2907             0.2795             0.0266             0.3233             0.2364             0.9012         
73.754170       -67.714170      2                0.1264             0.1284             0.0149             0.1570             0.1069             0.3919             0.1470             0.1493             0.0173             0.1825             0.1243             0.4557         
74.358330       -67.685280      2                0.2483             0.2298             0.0164             0.2641             0.1980             0.7696             0.2887             0.2672             0.0190             0.3071             0.2302             0.8949         
74.541670       -68.060280      2                0.2737             0.2621             0.0192             0.2941             0.2193             0.8486             0.3183             0.3048             0.0223             0.3420             0.2551             0.9867         
74.712500       -69.957780      2                0.1237             0.1296             0.0128             0.1727             0.1166             0.3836             0.1439             0.1507             0.0149             0.2008             0.1356             0.4460         
74.725000       -67.846940      2                0.2084             0.2069             0.0231             0.2642             0.1785             0.6459             0.2423             0.2406             0.0269             0.3072             0.2075             0.7511         
74.941670       -69.801110      2                0.1148             0.1213             0.0081             0.1381             0.1105             0.3559             0.1335             0.1410             0.0094             0.1606             0.1285             0.4139         
74.970830       -67.923610      2                0.2344             0.2297             0.0219             0.2798             0.1949             0.7267             0.2726             0.2670             0.0255             0.3254             0.2266             0.8450         
76.141670       -68.208330      2                0.2576             0.2823             0.0777             0.5178             0.1948             0.7985             0.2995             0.3282             0.0904             0.6021             0.2265             0.9285         
76.508330       -68.026390      2                0.5513             0.5124             0.1374             0.7150             0.2735             1.7089             0.6410             0.5958             0.1597             0.8314             0.3180             1.9871         
76.895830       -67.460830      2                0.1694             0.1700             0.0090             0.1876             0.1490             0.5252             0.1970             0.1977             0.0105             0.2182             0.1733             0.6107         
76.941670       -67.861390      2                0.1762             0.1892             0.0220             0.2225             0.1420             0.5462             0.2049             0.2200             0.0256             0.2587             0.1651             0.6351         
77.212500       -67.980280      2                0.2470             0.2569             0.0293             0.3422             0.2179             0.7656             0.2872             0.2987             0.0341             0.3979             0.2534             0.8902         
77.345830       -67.778330      2                0.2434             0.2195             0.0400             0.2955             0.1618             0.7544             0.2830             0.2553             0.0465             0.3436             0.1882             0.8772         
77.650000       -70.487500      2                0.2277             0.2436             0.0596             0.3811             0.1802             0.7059             0.2648             0.2832             0.0693             0.4432             0.2095             0.8208         
79.166670       -70.540830      2                0.1443             0.1583             0.0114             0.2021             0.1443             0.4473             0.1678             0.1841             0.0132             0.2351             0.1678             0.5201         
79.758330       -69.001110      2                0.5020             0.6170             0.2242             1.1816             0.3481             1.5562             0.5837             0.7174             0.2607             1.3740             0.4048             1.8095         
80.800000       -70.777780      2                0.1677             0.1642             0.0128             0.1908             0.1448             0.5198             0.1950             0.1909             0.0149             0.2219             0.1684             0.6044         
82.441670       -71.000560      2                0.8624             0.8711             0.2520             1.6446             0.5848             2.6733             1.0027             1.0129             0.2930             1.9124             0.6800             3.1085         
82.941670       -68.235560      2                0.7752             0.7397             0.1475             1.0713             0.5466             2.4032             0.9014             0.8601             0.1715             1.2457             0.6356             2.7944         
83.333330       -68.152220      2                0.5112             0.5511             0.0709             0.7201             0.4545             1.5846             0.5944             0.6408             0.0825             0.8374             0.5285             1.8426         
84.441670       -74.782780      2                0.0721             0.0734             0.0019             0.0768             0.0706             0.2237             0.0839             0.0854             0.0023             0.0893             0.0820             0.2601         
84.783330       -74.853330      2                0.0807             0.0792             0.0035             0.0855             0.0718             0.2503             0.0939             0.0921             0.0040             0.0994             0.0835             0.2911         
85.983330       -69.180560      2                0.9339             1.1276             0.2728             1.5941             0.6611             2.8952             1.0860             1.3112             0.3172             1.8536             0.7687             3.3665         
86.550000       -69.082500      2                0.9522             0.8767             0.0721             0.9623             0.6630             2.9518             1.1072             1.0194             0.0838             1.1190             0.7710             3.4323         
86.716670       -69.189720      2                0.9088             0.9013             0.0700             1.0781             0.7624             2.8172             1.0567             1.0480             0.0814             1.2536             0.8865             3.2758         
91.629170       -72.226390      2                0.0855             0.0857             0.0022             0.0887             0.0807             0.2650             0.0994             0.0997             0.0026             0.1032             0.0938             0.3081         
91.870830       -72.494170      2                0.0817             0.0820             0.0013             0.0848             0.0789             0.2533             0.0950             0.0954             0.0015             0.0985             0.0918             0.2945         
92.220830       -72.383890      2                0.0858             0.0847             0.0010             0.0859             0.0821             0.2660             0.0998             0.0985             0.0012             0.0998             0.0955             0.3093         
93.670830       -69.801940      2                0.0649             0.0665             0.0011             0.0689             0.0649             0.2013             0.0755             0.0773             0.0013             0.0802             0.0755             0.2341         
71.604170       -72.568330      2                0.0973             0.0961             0.0026             0.1003             0.0910             0.3017             0.1132             0.1117             0.0030             0.1166             0.1058             0.3509         
71.875000       -72.588330      2                0.0978             0.0975             0.0026             0.1015             0.0917             0.3030             0.1137             0.1134             0.0031             0.1180             0.1066             0.3524         
72.250000       -72.640000      2                0.1054             0.1022             0.0058             0.1132             0.0926             0.3266             0.1225             0.1189             0.0068             0.1316             0.1077             0.3798         
72.308330       -72.056670      2                0.1176             0.1138             0.0055             0.1234             0.1037             0.3646             0.1368             0.1323             0.0064             0.1435             0.1206             0.4240         
72.412500       -72.248060      2                0.0970             0.0982             0.0012             0.1009             0.0966             0.3006             0.1127             0.1142             0.0014             0.1173             0.1124             0.3495         
72.587500       -72.827500      2                0.0989             0.0988             0.0017             0.1021             0.0961             0.3067             0.1150             0.1148             0.0020             0.1187             0.1118             0.3567         
72.700000       -72.576670      2                0.1291             0.1258             0.0088             0.1416             0.1126             0.4002             0.1501             0.1463             0.0103             0.1646             0.1309             0.4654         
73.187500       -72.517780      2                0.1345             0.1339             0.0037             0.1408             0.1288             0.4170             0.1564             0.1557             0.0043             0.1637             0.1498             0.4849         
73.225000       -72.172500      2                0.0993             0.0994             0.0010             0.1012             0.0972             0.3078             0.1155             0.1156             0.0011             0.1176             0.1131             0.3579         
76.470830       -67.049440      2                0.2248             0.2378             0.0362             0.3367             0.1949             0.6968             0.2614             0.2765             0.0421             0.3915             0.2266             0.8102         
76.837500       -66.829170      2                0.2009             0.1969             0.0107             0.2149             0.1715             0.6229             0.2337             0.2289             0.0124             0.2499             0.1995             0.7243         
76.945830       -66.798060      2                0.1978             0.1937             0.0104             0.2098             0.1737             0.6131             0.2300             0.2252             0.0121             0.2439             0.2020             0.7129         
76.983330       -67.357780      2                0.1626             0.1696             0.0140             0.1966             0.1446             0.5041             0.1891             0.1973             0.0163             0.2286             0.1681             0.5862         
77.312500       -67.699720      2                0.1709             0.1812             0.0220             0.2358             0.1525             0.5299             0.1988             0.2107             0.0256             0.2742             0.1773             0.6161         
77.508330       -66.699170      2                0.1602             0.1599             0.0059             0.1754             0.1476             0.4968             0.1863             0.1860             0.0069             0.2040             0.1717             0.5776         
77.633330       -66.940000      2                0.2675             0.2755             0.0483             0.3805             0.1938             0.8294             0.3111             0.3204             0.0562             0.4424             0.2253             0.9644         
77.795830       -67.626670      2                0.2881             0.2927             0.0477             0.3665             0.2097             0.8930             0.3350             0.3403             0.0554             0.4261             0.2438             1.0384         
78.450000       -66.620000      2                0.1560             0.1551             0.0063             0.1670             0.1469             0.4837             0.1814             0.1804             0.0073             0.1942             0.1708             0.5625         
81.362500       -73.570280      2                0.0825             0.0835             0.0017             0.0880             0.0816             0.2558             0.0960             0.0971             0.0020             0.1023             0.0949             0.2975         
87.700000       -71.707780      2                0.0914             0.0937             0.0054             0.1056             0.0852             0.2834             0.1063             0.1090             0.0062             0.1228             0.0990             0.3296         
88.045830       -71.858330      2                0.0833             0.0805             0.0035             0.0856             0.0730             0.2581             0.0968             0.0936             0.0041             0.0996             0.0849             0.3001         
93.483330       -72.505280      2                0.0748             0.0761             0.0019             0.0797             0.0722             0.2319             0.0870             0.0885             0.0022             0.0927             0.0839             0.2697         
93.616670       -72.609440      2                0.0790             0.0776             0.0019             0.0807             0.0736             0.2448             0.0918             0.0903             0.0022             0.0939             0.0856             0.2846         
71.516670       -66.911390      2                0.0771             0.0788             0.0097             0.0973             0.0621             0.2390             0.0896             0.0916             0.0112             0.1131             0.0723             0.2779         
71.858330       -67.659720      2                0.1093             0.1106             0.0050             0.1211             0.1017             0.3389             0.1271             0.1286             0.0058             0.1408             0.1183             0.3940         
72.620830       -67.325830      2                0.1568             0.1602             0.0302             0.2214             0.1255             0.4861             0.1823             0.1863             0.0352             0.2575             0.1459             0.5653         
73.920830       -67.783330      2                0.1613             0.1696             0.0376             0.2457             0.1245             0.5002             0.1876             0.1972             0.0438             0.2857             0.1448             0.5816         
73.966670       -69.705830      2                0.1497             0.1668             0.0236             0.2026             0.1249             0.4642             0.1741             0.1940             0.0274             0.2356             0.1452             0.5398         
74.225000       -68.002220      2                0.2137             0.2283             0.0395             0.2960             0.1628             0.6624             0.2485             0.2654             0.0460             0.3442             0.1893             0.7702         
74.562500       -68.049170      2                0.2737             0.2619             0.0206             0.2941             0.2193             0.8486             0.3183             0.3046             0.0239             0.3420             0.2551             0.9867         
74.591670       -69.803060      2                0.1201             0.1188             0.0044             0.1278             0.1105             0.3723             0.1397             0.1381             0.0052             0.1486             0.1285             0.4329         
74.908330       -69.557500      2                0.3194             0.3058             0.0453             0.3762             0.2078             0.9901             0.3714             0.3556             0.0527             0.4374             0.2416             1.1513         
76.137500       -67.975560      2                0.4939             0.4432             0.0950             0.6717             0.3308             1.5311             0.5743             0.5154             0.1105             0.7810             0.3846             1.7803         
76.550000       -68.063060      2                0.5652             0.5706             0.1215             0.7189             0.3045             1.7521             0.6572             0.6635             0.1413             0.8359             0.3541             2.0373         
76.641670       -68.427220      2                0.5648             0.5633             0.0678             0.7178             0.4630             1.7509             0.6568             0.6551             0.0788             0.8347             0.5384             2.0360         
76.641670       -68.363060      2                0.4862             0.4922             0.0491             0.6042             0.3977             1.5071             0.5653             0.5723             0.0571             0.7025             0.4624             1.7524         
76.670830       -67.842220      2                0.1916             0.1954             0.0206             0.2326             0.1560             0.5939             0.2228             0.2272             0.0239             0.2704             0.1814             0.6906         
76.975000       -67.928890      2                0.2125             0.2187             0.0188             0.2542             0.1762             0.6589             0.2471             0.2543             0.0218             0.2955             0.2049             0.7661         
77.300000       -68.444170      2                0.7770             0.7222             0.0689             0.8339             0.5487             2.4087             0.9035             0.8398             0.0801             0.9697             0.6380             2.8008         
77.395830       -67.810560      2                0.2637             0.2636             0.0528             0.3720             0.1750             0.8175             0.3067             0.3066             0.0614             0.4326             0.2035             0.9506         
78.945830       -69.191940      2                0.8357             0.8734             0.1819             1.3460             0.6263             2.5906             0.9717             1.0156             0.2115             1.5652             0.7282             3.0123         
79.070830       -69.154170      2                0.8509             0.8763             0.2203             1.3878             0.5640             2.6377             0.9894             1.0189             0.2561             1.6137             0.6558             3.0671         
79.220830       -69.150000      2                0.9942             1.0441             0.3005             1.7478             0.6486             3.0821             1.1561             1.2140             0.3494             2.0324             0.7541             3.5838         
79.520830       -69.171670      2                1.7716             1.7362             0.4224             2.4036             0.9757             5.4919             2.0600             2.0189             0.4912             2.7948             1.1346             6.3860         
79.670830       -69.079440      2                1.1985             1.2010             0.4068             2.0186             0.5619             3.7152             1.3936             1.3965             0.4731             2.3472             0.6534             4.3200         
80.008330       -69.261110      2                0.9582             0.9982             0.5435             2.0899             0.3099             2.9703             1.1141             1.1607             0.6320             2.4301             0.3604             3.4538         
80.050000       -68.904170      2                0.4934             0.5285             0.1171             0.7849             0.3481             1.5296             0.5738             0.6146             0.1361             0.9126             0.4048             1.7786         
80.437500       -68.917220      2                0.6921             0.6966             0.0649             0.8277             0.5781             2.1455             0.8048             0.8100             0.0754             0.9625             0.6722             2.4948         
81.550000       -70.981390      2                0.2368             0.2413             0.0344             0.3105             0.1834             0.7340             0.2753             0.2806             0.0400             0.3611             0.2132             0.8534         
82.412500       -70.983890      2                0.7868             0.7981             0.1955             1.4358             0.5646             2.4389             0.9148             0.9280             0.2274             1.6695             0.6566             2.8360         
82.495830       -67.878890      2                0.3857             0.4149             0.1033             0.6158             0.2900             1.1957             0.4485             0.4824             0.1202             0.7160             0.3372             1.3903         
82.962500       -67.991110      2                0.5475             0.5418             0.0924             0.6731             0.3648             1.6973             0.6367             0.6300             0.1074             0.7827             0.4242             1.9737         
82.991670       -67.971670      2                0.5192             0.5219             0.1038             0.6731             0.3498             1.6094             0.6037             0.6069             0.1207             0.7827             0.4067             1.8714         
83.554170       -67.856390      2                0.3589             0.3762             0.0427             0.5287             0.3230             1.1125             0.4173             0.4374             0.0497             0.6148             0.3756             1.2937         
85.108330       -69.248610      2                2.4911             2.9269             1.2882             6.3633             1.2363             7.7225             2.8967             3.4034             1.4979             7.3992             1.4376             8.9797         
85.375000       -69.185000      2                2.1256             2.1477             0.4219             3.1337             1.3290             6.5895             2.4717             2.4974             0.4906             3.6439             1.5454             7.6622         
85.412500       -69.229440      2                1.6345             1.6579             0.4218             2.4326             0.9924             5.0670             1.9006             1.9278             0.4904             2.8286             1.1540             5.8919         
85.491670       -69.047500      2                2.2109             2.2961             0.1687             2.6086             2.0046             6.8538             2.5708             2.6699             0.1962             3.0332             2.3310             7.9695         
86.045830       -69.333330      2                2.0196             1.7566             0.2139             2.0804             1.2923             6.2608             2.3484             2.0426             0.2487             2.4191             1.5027             7.2800         
86.458330       -69.380280      2                1.2631             1.2572             0.0558             1.3984             1.1617             3.9156             1.4687             1.4618             0.0649             1.6261             1.3508             4.5531         
86.483330       -69.271940      2                1.0373             1.0609             0.1446             1.2877             0.7989             3.2156             1.2062             1.2336             0.1682             1.4973             0.9289             3.7391         
76.400000       -68.628610      2                0.2659             0.3033             0.0805             0.4813             0.2001             0.8242             0.3092             0.3527             0.0936             0.5596             0.2327             0.9584         
24.004170       -75.457780      2                0.0612             0.0606             0.0006             0.0615             0.0591             0.1899             0.0712             0.0704             0.0007             0.0715             0.0688             0.2208         
22.658330       -76.054440      2                0.0447             0.0446             0.0016             0.0474             0.0417             0.1387             0.0520             0.0519             0.0019             0.0551             0.0485             0.1612         
22.883330       -71.952780      2                0.0374             0.0375             0.0008             0.0392             0.0361             0.1159             0.0435             0.0436             0.0009             0.0455             0.0419             0.1348         
23.750000       -75.556670      2                0.0581             0.0576             0.0021             0.0614             0.0539             0.1802             0.0676             0.0670             0.0025             0.0714             0.0626             0.2095         
25.429170       -71.161110      2                0.0288             0.0288             0.0004             0.0298             0.0281             0.0893             0.0335             0.0335             0.0005             0.0346             0.0327             0.1039         
25.591670       -74.173330      2                0.0369             0.0364             0.0013             0.0385             0.0342             0.1143             0.0429             0.0423             0.0015             0.0447             0.0397             0.1329         
